Wavelength (nm)
278.0
278.5
279.0
279.5
280.0
280.5
281.0
281.5
282.0
282.5
283.0
283.5
284.0
284.5
285.0
285.5
286.0
286.5
287.0
287.5
288.0
288.5
289.0
289.5
290.0
290.5
291.0
291.5
292.0
292.5
293.0
293.5
294.0
294.5
295.0
295.5
296.0
296.5
297.0
297.5
298.0
298.5
299.0
299.5
300.0
300.5
301.0
301.5
302.0
302.5
303.0
303.5
304.0
304.5
305.0
305.5
306.0
306.5
307.0
307.5
308.0
308.5
309.0
309.5
310.0
310.5
311.0
311.5
312.0
312.5
313.0
313.5
314.0
314.5
315.0
315.5
316.0
316.5
317.0
317.5
318.0
318.5
319.0
319.5
320.0
320.5
321.0
321.5
322.0
322.5
323.0
323.5
324.0
324.5
325.0
325.5
326.0
326.5
327.0
327.5
328.0
328.5
329.0
329.5
330.0
330.5
331.0
331.5
332.0
332.5
333.0
333.5
334.0
334.5
335.0
335.5
336.0
336.5
337.0
337.5
338.0
338.5
339.0
339.5
340.0
340.5
341.0
341.5
342.0
342.5
343.0
343.5
344.0
344.5
345.0
345.5
346.0
346.5
347.0
347.5
348.0
348.5
349.0
349.5
350.0
350.5
351.0
351.5
352.0
352.5
353.0
353.5
354.0
354.5
355.0
355.5
356.0
356.5
357.0
357.5
358.0
358.5
359.0
359.5
360.0
360.5
361.0
361.5
362.0
362.5
363.0
363.5
364.0
364.5
365.0
365.5
366.0
366.5
367.0
367.5
368.0
368.5
369.0
369.5
370.0
370.5
371.0
371.5
372.0
372.5
373.0
373.5
374.0
374.5
375.0
375.5
376.0
376.5
377.0
377.5
378.0
378.5
379.0
379.5
380.0
380.5
381.0
381.5
382.0
382.5
383.0
383.5
384.0
384.5
385.0
385.5
386.0
386.5
387.0
387.5
388.0
388.5
389.0
389.5
390.0
390.5
391.0
391.5
392.0
392.5
393.0
393.5
394.0
394.5
395.0
395.5
396.0
396.5
397.0
397.5
398.0
398.5
399.0
399.5
400.0
400.5
401.0
401.5
402.0
402.5
403.0
403.5
404.0
404.5
405.0
405.5
406.0
406.5
407.0
407.5
408.0
408.5
409.0
409.5
410.0
410.5
411.0
411.5
412.0
412.5
413.0
413.5
414.0
414.5
415.0
415.5
416.0
416.5
417.0
417.5
418.0
418.5
419.0
419.5
420.0
420.5
421.0
421.5
422.0
422.5
423.0
423.5
424.0
424.5
425.0
425.5
426.0
426.5
427.0
427.5
428.0
428.5
429.0
429.5
430.0
430.5
431.0
431.5
432.0
432.5
433.0
433.5
434.0
434.5
435.0
435.5
436.0
436.5
437.0
437.5
438.0
438.5
439.0
439.5
440.0
440.5
441.0
441.5
442.0
442.5
443.0
443.5
444.0
444.5
445.0
445.5
446.0
446.5
447.0
447.5
448.0
448.5
449.0
449.5
450.0
450.5
451.0
451.5
452.0
452.5
453.0
453.5
454.0
454.5
455.0
455.5
456.0
456.5
457.0
457.5
458.0
458.5
459.0
459.5
460.0
460.5
461.0
461.5
462.0
462.5
463.0
463.5
464.0
464.5
465.0
465.5
466.0
466.5
467.0
467.5
468.0
468.5
469.0
469.5
470.0
470.5
471.0
471.5
472.0
472.5
473.0
473.5
474.0
474.5
475.0
475.5
476.0
476.5
477.0
477.5
478.0
478.5
479.0
479.5
480.0
480.5
481.0
481.5
482.0
482.5
483.0
483.5
484.0
484.5
485.0
485.5
486.0
486.5
487.0
487.5
488.0
488.5
489.0
489.5
490.0
490.5
491.0
491.5
492.0
492.5
493.0
493.5
494.0
494.5
495.0
495.5
496.0
496.5
497.0
497.5
498.0
498.5
499.0
499.5
500.0
500.5
501.0
501.5
502.0
502.5
503.0
503.5
504.0
504.5
505.0
505.5
506.0
506.5
507.0
507.5
508.0
508.5
509.0
509.5
510.0
510.5
511.0
511.5
512.0
512.5
513.0
513.5
514.0
514.5
515.0
515.5
516.0
516.5
517.0
517.5
518.0
518.5
519.0
519.5
520.0
520.5
521.0
521.5
522.0
522.5
523.0
523.5
524.0
524.5
525.0
525.5
526.0
526.5
527.0
527.5
528.0
528.5
529.0
529.5
530.0
530.5
531.0
531.5
532.0
532.5
533.0
533.5
534.0
534.5
535.0
535.5
536.0
536.5
537.0
537.5
538.0
538.5
539.0
539.5
540.0
540.5
541.0
541.5
542.0
542.5
543.0
543.5
544.0
544.5
545.0
545.5
546.0
546.5
547.0
547.5
548.0
548.5
549.0
549.5
550.0
550.5
551.0
551.5
552.0
552.5
553.0
553.5
554.0
554.5
555.0
555.5
556.0
556.5
557.0
557.5
558.0
558.5
559.0
559.5
560.0
560.5
561.0
561.5
562.0
562.5
563.0
563.5
564.0
564.5
565.0
565.5
566.0
566.5
567.0
567.5
568.0
568.5
569.0
569.5
570.0
570.5
571.0
571.5
572.0
572.5
573.0
573.5
574.0
574.5
575.0
575.5
576.0
576.5
577.0
577.5
578.0
578.5
579.0
579.5
580.0
580.5
581.0
581.5
582.0
582.5
583.0
583.5
584.0
584.5
585.0
585.5
586.0
586.5
587.0
587.5
588.0
588.5
589.0
589.5
590.0
590.5
591.0
591.5
592.0
592.5
593.0
593.5
594.0
594.5
595.0
595.5
596.0
596.5
597.0
597.5
598.0
598.5
599.0
599.5
600.0
600.5
601.0
601.5
602.0
602.5
603.0
603.5
604.0
604.5
605.0
605.5
606.0
606.5
607.0
607.5
608.0
608.5
609.0
609.5
610.0
610.5
611.0
611.5
612.0
612.5
613.0
613.5
614.0
614.5
615.0
615.5
616.0
616.5
617.0
617.5
618.0
618.5
619.0
619.5
620.0
620.5
621.0
621.5
622.0
622.5
623.0
623.5
624.0
624.5
625.0
625.5
626.0
626.5
627.0
627.5
628.0
628.5
629.0
629.5
630.0
630.5
631.0
631.5
632.0
632.5
633.0
633.5
634.0
634.5
635.0
635.5
636.0
636.5
637.0
637.5
638.0
638.5
639.0
639.5
640.0
640.5
641.0
641.5
642.0
642.5
643.0
643.5
644.0
644.5
645.0
645.5
646.0
646.5
647.0
647.5
648.0
648.5
649.0
649.5
650.0
650.5
651.0
651.5
652.0
652.5
653.0
653.5
654.0
654.5
655.0
655.5
656.0
656.5
657.0
657.5
658.0
658.5
659.0
659.5
660.0
660.5
661.0
661.5
662.0
662.5
663.0
663.5
664.0
664.5
665.0
665.5
666.0
666.5
667.0
667.5
668.0
668.5
669.0
669.5
670.0
670.5
671.0
671.5
672.0
672.5
673.0
673.5
674.0
674.5
675.0
675.5
676.0
676.5
677.0
677.5
678.0
678.5
679.0
679.5
680.0
680.5
681.0
681.5
682.0
682.5
683.0
683.5
684.0
684.5
685.0
685.5
686.0
686.5
687.0
687.5
688.0
688.5
689.0
689.5
690.0
690.5
691.0
691.5
692.0
692.5
693.0
693.5
694.0
694.5
695.0
695.5
696.0
696.5
697.0
697.5
698.0
698.5
699.0
699.5
700.0
